38        Partition function for doubly ionized strontium
temp (K)  Z_SrIII
        1.00000       1.00000
      200.00000       1.00000
      400.00000       1.00000
      600.00000       1.00000
      800.00000       1.00000
     1000.00000       1.00000
     1200.00000       1.00000
     1400.00000       1.00000
     1600.00000       1.00000
     1800.00000       1.00000
     2000.00000       1.00000
     2200.00000       1.00000
     2400.00000       1.00000
     2600.00000       1.00000
     2800.00000       1.00000
     3000.00000       1.00000
     3200.00000       1.00000
     3400.00000       1.00000
     3600.00000       1.00000
     3800.00000       1.00000
     4000.00000       1.00000
     4200.00000       1.00000
     4400.00000       1.00000
     4600.00000       1.00000
     4800.00000       1.00000
     5000.00000       1.00000
     5200.00000       1.00000
     5400.00000       1.00000
     5600.00000       1.00000
     5800.00000       1.00000
     6000.00000       1.00000
     6200.00000       1.00000
     6400.00000       1.00000
     6600.00000       1.00000
     6800.00000       1.00000
     7000.00000       1.00000
     7200.00000       1.00000
     7400.00000       1.00000
     7600.00000       1.00000
     7800.00000       1.00000
     8000.00000       1.00000
     8200.00000       1.00000
     8400.00000       1.00000
     8600.00000       1.00000
     8800.00000       1.00000
     9000.00000       1.00000
     9200.00000       1.00000
     9400.00000       1.00000
     9600.00000       1.00000
     9800.00000       1.00000
    10000.00000       1.00000
    10200.00000       1.00000
    10400.00000       1.00000
    10600.00000       1.00000
    10800.00000       1.00000
    11000.00000       1.00000
    11200.00000       1.00000
    11400.00000       1.00000
    11600.00000       1.00000
    11800.00000       1.00000
    12000.00000       1.00000
    12200.00000       1.00000
    12400.00000       1.00000
    12600.00000       1.00000
    12800.00000       1.00000
    13000.00000       1.00000
       -1.00000       0.00000

Sr III  energy levels are from Persson & Valind, Phys.
Scripta v5, p 187 (1972).   C. E. Moore's does not list levels
for Sr III.  The ground state of this ion is a tightly closed
4s^2 4p^6 shell rather like an inert gas. The lowest excited
is > 190000 cm-1.





James E. Lawler
Arthur and Aurelia Schawlow Professor of Physics
University of Wisconsin
1150 University Ave.
Madison, WI 53706

tele: 608 262 2918
fax:  608 265 2334 

