74        Partition Functions for Tungsten
temp (K)  Z_W I  Z_W II
        1.00000       1.00000       2.00000
      200.00000       1.00002       2.00007
      400.00000       1.00758       2.01703
      600.00000       1.06236       2.10787
      800.00000       1.19738       2.28226
     1000.00000       1.42119       2.52293
     1200.00000       1.72768       2.81647
     1400.00000       2.10428       3.15474
     1600.00000       2.53698       3.53227
     1800.00000       3.01270       3.94470
     2000.00000       3.52036       4.38825
     2200.00000       4.05118       4.85964
     2400.00000       4.59864       5.35618
     2600.00000       5.15826       5.87582
     2800.00000       5.72729       6.41716
     3000.00000       6.30444       6.97939
     3200.00000       6.88957       7.56224
     3400.00000       7.48340       8.16588
     3600.00000       8.08732       8.79080
     3800.00000       8.70318       9.43775
     4000.00000       9.33317      10.10763
     4200.00000       9.97967      10.80142
     4400.00000      10.64519      11.52015
     4600.00000      11.33229      12.26482
     4800.00000      12.04353      13.03637
     5000.00000      12.78144      13.83568
     5200.00000      13.54852      14.66351
     5400.00000      14.34718      15.52054
     5600.00000      15.17976      16.40734
     5800.00000      16.04850      17.32434
     6000.00000      16.95560      18.27190
     6200.00000      17.90313      19.25024
     6400.00000      18.89310      20.25950
     6600.00000      19.92743      21.29974
     6800.00000      21.00797      22.37093
     7000.00000      22.13648      23.47296
     7200.00000      23.31466      24.60568
     7400.00000      24.54413      25.76886
     7600.00000      25.82641      26.96224
     7800.00000      27.16300      28.18552
     8000.00000      28.55529      29.43837
     8200.00000      30.00462      30.72044
     8400.00000      31.51224      32.03135
     8600.00000      33.07935      33.37071
     8800.00000      34.70708      34.73814
     9000.00000      36.39646      36.13324
     9200.00000      38.14850      37.55561
     9400.00000      39.96408      39.00485
     9600.00000      41.84406      40.48057
     9800.00000      43.78920      41.98238
    10000.00000      45.80020      43.50992
    10200.00000      47.87768      45.06280
    10400.00000      50.02221      46.64068
    10600.00000      52.23425      48.24320
    10800.00000      54.51423      49.87002
    11000.00000      56.86249      51.52082
    11200.00000      59.27930      53.19528
    11400.00000      61.76488      54.89308
    11600.00000      64.31937      56.61394
    11800.00000      66.94285      58.35756
    12000.00000      69.63533      60.12367
    12200.00000      72.39676      61.91198
    12400.00000      75.22703      63.72224
    12600.00000      78.12598      65.55418
    12800.00000      81.09339      67.40755
    13000.00000      84.12899      69.28210
         -1.000         0.000         0.000

   W I and W II levels are from nist.gov Nov 9 2005.
Their ref: : A. E. Kramida and T. Shirai (2005),
J. Phys. Chem Ref. Data, to be published.
Some 43 even parity W I levels near I.P. are missing J,
a J = 3 was used.

